0
Diameter:	   5.00
   1.00
Area:	  19.6350
GaugeLength:	  50.00
2009-1-1
A3
001
DataNumber:	3212
index	Load(kN)	Defor(mm)	Stroke(mm)	Time(s)
    0	  0.0100	  0.0088	   0.009	   0.045
    1	  0.0096	  0.0162	   0.016	   0.095
    2	  0.0100	  0.0250	   0.025	   0.145
    3	  0.0096	  0.0337	   0.034	   0.195
    4	  0.0096	  0.0412	   0.041	   0.245
    5	  0.0100	  0.0500	   0.050	   0.295
    6	  0.0100	  0.0587	   0.059	   0.345
    7	  0.0096	  0.0675	   0.067	   0.395
    8	  0.0100	  0.0750	   0.075	   0.445
    9	  0.0100	  0.0837	   0.084	   0.495
   10	  0.0104	  0.0925	   0.093	   0.545
   11	  0.0100	  0.1000	   0.100	   0.595
   12	  0.0096	  0.1088	   0.109	   0.645
   13	  0.0096	  0.1175	   0.117	   0.695
   14	  0.0096	  0.1250	   0.125	   0.745
   15	  0.0100	  0.1337	   0.134	   0.795
   16	  0.0100	  0.1425	   0.142	   0.845
   17	  0.0104	  0.1512	   0.151	   0.895
   18	  0.0104	  0.1587	   0.159	   0.945
   19	  0.0104	  0.1675	   0.167	   0.995
   20	  0.0104	  0.1762	   0.176	   1.045
   21	  0.0104	  0.1837	   0.184	   1.095
   22	  0.0104	  0.1925	   0.192	   1.145
   23	  0.0104	  0.2013	   0.201	   1.195
   24	  0.0104	  0.2087	   0.209	   1.245
   25	  0.0100	  0.2175	   0.218	   1.295
   26	  0.0104	  0.2262	   0.226	   1.345
   27	  0.0108	  0.2338	   0.234	   1.395
   28	  0.0112	  0.2425	   0.242	   1.445
   29	  0.0108	  0.2512	   0.251	   1.495
   30	  0.0108	  0.2587	   0.259	   1.545
   31	  0.0112	  0.2675	   0.267	   1.595
   32	  0.0112	  0.2763	   0.276	   1.645
   33	  0.0116	  0.2850	   0.285	   1.695
   34	  0.0112	  0.2925	   0.292	   1.745
   35	  0.0116	  0.3012	   0.301	   1.795
   36	  0.0116	  0.3088	   0.309	   1.845
   37	  0.0116	  0.3175	   0.317	   1.895
   38	  0.0124	  0.3262	   0.326	   1.945
   39	  0.0120	  0.3350	   0.335	   1.995
   40	  0.0104	  0.3425	   0.343	   2.045
   41	  0.0116	  0.3512	   0.351	   2.095
   42	  0.0116	  0.3600	   0.360	   2.145
   43	  0.0112	  0.3675	   0.367	   2.195
   44	  0.0116	  0.3762	   0.376	   2.245
   45	  0.0116	  0.3850	   0.385	   2.295
   46	  0.0120	  0.3925	   0.392	   2.345
   47	  0.0120	  0.4013	   0.401	   2.395
   48	  0.0116	  0.4100	   0.410	   2.445
   49	  0.0120	  0.4175	   0.417	   2.495
   50	  0.0116	  0.4262	   0.426	   2.545
   51	  0.0120	  0.4350	   0.435	   2.595
   52	  0.0124	  0.4425	   0.442	   2.645
   53	  0.0124	  0.4512	   0.451	   2.695
   54	  0.0120	  0.4600	   0.460	   2.745
   55	  0.0120	  0.4675	   0.468	   2.795
   56	  0.0120	  0.4762	   0.476	   2.845
   57	  0.0116	  0.4850	   0.485	   2.895
   58	  0.0116	  0.4925	   0.492	   2.945
   59	  0.0120	  0.5012	   0.501	   2.995
   60	  0.0120	  0.5100	   0.510	   3.045
   61	  0.0120	  0.5175	   0.517	   3.095
   62	  0.0124	  0.5263	   0.526	   3.145
   63	  0.0124	  0.5350	   0.535	   3.195
   64	  0.0120	  0.5437	   0.544	   3.245
   65	  0.0120	  0.5512	   0.551	   3.295
   66	  0.0120	  0.5600	   0.560	   3.345
   67	  0.0120	  0.5687	   0.569	   3.395
   68	  0.0128	  0.5763	   0.576	   3.445
   69	  0.0128	  0.5850	   0.585	   3.495
   70	  0.0128	  0.5938	   0.594	   3.545
   71	  0.0124	  0.6012	   0.601	   3.595
   72	  0.0128	  0.6100	   0.610	   3.645
   73	  0.0132	  0.6187	   0.619	   3.695
   74	  0.0128	  0.6275	   0.627	   3.745
   75	  0.0128	  0.6350	   0.635	   3.795
   76	  0.0128	  0.6438	   0.644	   3.845
   77	  0.0132	  0.6525	   0.652	   3.895
   78	  0.0128	  0.6612	   0.661	   3.945
   79	  0.0128	  0.6687	   0.669	   3.995
   80	  0.0132	  0.6775	   0.678	   4.045
   81	  0.0128	  0.6850	   0.685	   4.095
   82	  0.0128	  0.6937	   0.694	   4.145
   83	  0.0132	  0.7025	   0.702	   4.195
   84	  0.0136	  0.7113	   0.711	   4.245
   85	  0.0132	  0.7188	   0.719	   4.295
   86	  0.0136	  0.7275	   0.727	   4.345
   87	  0.0136	  0.7350	   0.735	   4.395
   88	  0.0132	  0.7437	   0.744	   4.445
   89	  0.0140	  0.7525	   0.752	   4.495
   90	  0.0136	  0.7612	   0.761	   4.545
   91	  0.0136	  0.7688	   0.769	   4.595
   92	  0.0132	  0.7775	   0.777	   4.645
   93	  0.0140	  0.7862	   0.786	   4.695
   94	  0.0140	  0.7950	   0.795	   4.745
   95	  0.0140	  0.8025	   0.803	   4.795
   96	  0.0140	  0.8112	   0.811	   4.845
   97	  0.0144	  0.8200	   0.820	   4.895
   98	  0.0148	  0.8275	   0.827	   4.945
   99	  0.0144	  0.8363	   0.836	   4.995
  100	  0.0140	  0.8450	   0.845	   5.045
  101	  0.0140	  0.8525	   0.852	   5.095
  102	  0.0132	  0.8612	   0.861	   5.145
  103	  0.0136	  0.8700	   0.870	   5.195
  104	  0.0144	  0.8775	   0.877	   5.245
  105	  0.0140	  0.8862	   0.886	   5.295
  106	  0.0140	  0.8950	   0.895	   5.345
  107	  0.0140	  0.9038	   0.904	   5.395
  108	  0.0152	  0.9112	   0.911	   5.445
  109	  0.0148	  0.9200	   0.920	   5.495
  110	  0.0144	  0.9287	   0.929	   5.545
  111	  0.0144	  0.9375	   0.938	   5.595
  112	  0.0152	  0.9450	   0.945	   5.645
  113	  0.0148	  0.9537	   0.954	   5.695
  114	  0.0148	  0.9625	   0.962	   5.745
  115	  0.0156	  0.9700	   0.970	   5.795
  116	  0.0152	  0.9787	   0.979	   5.845
  117	  0.0156	  0.9875	   0.987	   5.895
  118	  0.0156	  0.9950	   0.995	   5.945
  119	  0.0156	  1.0037	   1.004	   5.995
  120	  0.0152	  1.0125	   1.012	   6.045
  121	  0.0160	  1.0213	   1.021	   6.095
  122	  0.0160	  1.0287	   1.029	   6.145
  123	  0.0164	  1.0375	   1.038	   6.195
  124	  0.0164	  1.0462	   1.046	   6.245
  125	  0.0164	  1.0537	   1.054	   6.295
  126	  0.0156	  1.0625	   1.062	   6.345
  127	  0.0156	  1.0712	   1.071	   6.395
  128	  0.0160	  1.0800	   1.080	   6.445
  129	  0.0164	  1.0875	   1.087	   6.495
  130	  0.0164	  1.0962	   1.096	   6.545
  131	  0.0156	  1.1050	   1.105	   6.595
  132	  0.0160	  1.1125	   1.112	   6.645
  133	  0.0164	  1.1213	   1.121	   6.695
  134	  0.0168	  1.1300	   1.130	   6.745
  135	  0.0168	  1.1375	   1.137	   6.795
  136	  0.0172	  1.1463	   1.146	   6.845
  137	  0.0168	  1.1550	   1.155	   6.895
  138	  0.0172	  1.1637	   1.164	   6.945
  139	  0.0168	  1.1712	   1.171	   6.995
  140	  0.0168	  1.1800	   1.180	   7.045
  141	  0.0168	  1.1888	   1.189	   7.095
  142	  0.0176	  1.1962	   1.196	   7.145
  143	  0.0176	  1.2050	   1.205	   7.195
  144	  0.0176	  1.2138	   1.214	   7.245
  145	  0.0180	  1.2212	   1.221	   7.295
  146	  0.0184	  1.2300	   1.230	   7.345
  147	  0.0184	  1.2387	   1.239	   7.395
  148	  0.0184	  1.2475	   1.247	   7.445
  149	  0.0180	  1.2550	   1.255	   7.495
  150	  0.0184	  1.2637	   1.264	   7.545
  151	  0.0184	  1.2713	   1.271	   7.595
  152	  0.0188	  1.2800	   1.280	   7.645
  153	  0.0184	  1.2887	   1.289	   7.695
  154	  0.0188	  1.2975	   1.298	   7.745
  155	  0.0184	  1.3050	   1.305	   7.795
  156	  0.0188	  1.3138	   1.314	   7.845
  157	  0.0196	  1.3225	   1.322	   7.895
  158	  0.0196	  1.3312	   1.331	   7.945
  159	  0.0196	  1.3388	   1.339	   7.995
  160	  0.0196	  1.3475	   1.347	   8.045
  161	  0.0204	  1.3562	   1.356	   8.095
  162	  0.0192	  1.3637	   1.364	   8.145
  163	  0.0188	  1.3725	   1.372	   8.195
  164	  0.0196	  1.3813	   1.381	   8.245
  165	  0.0196	  1.3887	   1.389	   8.295
  166	  0.0192	  1.3975	   1.397	   8.345
  167	  0.0196	  1.4062	   1.406	   8.395
  168	  0.0192	  1.4137	   1.414	   8.445
  169	  0.0192	  1.4225	   1.423	   8.495
  170	  0.0196	  1.4312	   1.431	   8.545
  171	  0.0192	  1.4387	   1.439	   8.595
  172	  0.0196	  1.4475	   1.447	   8.645
  173	  0.0200	  1.4562	   1.456	   8.695
  174	  0.0204	  1.4650	   1.465	   8.745
  175	  0.0204	  1.4725	   1.472	   8.795
  176	  0.0204	  1.4812	   1.481	   8.845
  177	  0.0204	  1.4900	   1.490	   8.895
  178	  0.0208	  1.4975	   1.497	   8.945
  179	  0.0208	  1.5063	   1.506	   8.995
  180	  0.0212	  1.5150	   1.515	   9.045
  181	  0.0212	  1.5225	   1.522	   9.095
  182	  0.0208	  1.5312	   1.531	   9.145
  183	  0.0204	  1.5400	   1.540	   9.195
  184	  0.0212	  1.5475	   1.548	   9.245
  185	  0.0212	  1.5562	   1.556	   9.295
  186	  0.0220	  1.5650	   1.565	   9.345
  187	  0.0220	  1.5725	   1.572	   9.395
  188	  0.0224	  1.5812	   1.581	   9.445
  189	  0.0220	  1.5900	   1.590	   9.495
  190	  0.0220	  1.5975	   1.597	   9.545
  191	  0.0220	  1.6062	   1.606	   9.595
  192	  0.0216	  1.6150	   1.615	   9.645
  193	  0.0224	  1.6237	   1.624	   9.695
  194	  0.0224	  1.6312	   1.631	   9.745
  195	  0.0228	  1.6400	   1.640	   9.795
  196	  0.0228	  1.6487	   1.649	   9.845
  197	  0.0228	  1.6562	   1.656	   9.895
  198	  0.0228	  1.6650	   1.665	   9.945
  199	  0.0232	  1.6737	   1.674	   9.995
  200	  0.0228	  1.6812	   1.681	  10.045
  201	  0.0232	  1.6900	   1.690	  10.095
  202	  0.0224	  1.6988	   1.699	  10.145
  203	  0.0228	  1.7075	   1.707	  10.195
  204	  0.0232	  1.7150	   1.715	  10.245
  205	  0.0228	  1.7237	   1.724	  10.295
  206	  0.0228	  1.7312	   1.731	  10.345
  207	  0.0232	  1.7400	   1.740	  10.395
  208	  0.0228	  1.7487	   1.749	  10.445
  209	  0.0236	  1.7575	   1.757	  10.495
  210	  0.0228	  1.7650	   1.765	  10.545
  211	  0.0240	  1.7737	   1.774	  10.595
  212	  0.0240	  1.7825	   1.782	  10.645
  213	  0.0240	  1.7912	   1.791	  10.695
  214	  0.0244	  1.7987	   1.799	  10.745
  215	  0.0248	  1.8075	   1.808	  10.795
  216	  0.0248	  1.8150	   1.815	  10.845
  217	  0.0244	  1.8237	   1.824	  10.895
  218	  0.0248	  1.8325	   1.832	  10.945
  219	  0.0248	  1.8400	   1.840	  10.995
  220	  0.0248	  1.8487	   1.849	  11.045
  221	  0.0240	  1.8575	   1.857	  11.095
  222	  0.0248	  1.8650	   1.865	  11.145
  223	  0.0252	  1.8737	   1.874	  11.195
  224	  0.0248	  1.8825	   1.882	  11.245
  225	  0.0252	  1.8913	   1.891	  11.295
  226	  0.0260	  1.8987	   1.899	  11.345
  227	  0.0256	  1.9075	   1.907	  11.395
  228	  0.0268	  1.9162	   1.916	  11.445
  229	  0.0256	  1.9237	   1.924	  11.495
  230	  0.0260	  1.9325	   1.933	  11.545
  231	  0.0260	  1.9412	   1.941	  11.595
  232	  0.0260	  1.9487	   1.949	  11.645
  233	  0.0264	  1.9575	   1.957	  11.695
  234	  0.0264	  1.9662	   1.966	  11.745
  235	  0.0264	  1.9750	   1.975	  11.795
  236	  0.0264	  1.9825	   1.982	  11.845
  237	  0.0260	  1.9912	   1.991	  11.895
  238	  0.0260	  2.0000	   2.000	  11.945
  239	  0.0264	  2.0075	   2.007	  11.995
  240	  0.0264	  2.0162	   2.016	  12.045
  241	  0.0268	  2.0250	   2.025	  12.095
  242	  0.0268	  2.0325	   2.033	  12.145
  243	  0.0276	  2.0412	   2.041	  12.195
  244	  0.0276	  2.0500	   2.050	  12.245
  245	  0.0288	  2.0575	   2.057	  12.295
  246	  0.0288	  2.0662	   2.066	  12.345
  247	  0.0288	  2.0750	   2.075	  12.395
  248	  0.0280	  2.0825	   2.082	  12.445
  249	  0.0276	  2.0912	   2.091	  12.495
  250	  0.0280	  2.1000	   2.100	  12.545
  251	  0.0276	  2.1075	   2.107	  12.595
  252	  0.0276	  2.1163	   2.116	  12.645
  253	  0.0280	  2.1250	   2.125	  12.695
  254	  0.0280	  2.1325	   2.132	  12.745
  255	  0.0284	  2.1412	   2.141	  12.795
  256	  0.0292	  2.1500	   2.150	  12.845
  257	  0.0288	  2.1588	   2.159	  12.895
  258	  0.0284	  2.1662	   2.166	  12.945
  259	  0.0292	  2.1750	   2.175	  12.995
  260	  0.0296	  2.1837	   2.184	  13.045
  261	  0.0292	  2.1912	   2.191	  13.095
  262	  0.0292	  2.2000	   2.200	  13.145
  263	  0.0304	  2.2088	   2.209	  13.195
  264	  0.0296	  2.2175	   2.217	  13.245
  265	  0.0300	  2.2250	   2.225	  13.295
  266	  0.0300	  2.2337	   2.234	  13.345
  267	  0.0300	  2.2425	   2.243	  13.395
  268	  0.0300	  2.2500	   2.250	  13.445
  269	  0.0300	  2.2587	   2.259	  13.495
  270	  0.0300	  2.2675	   2.267	  13.545
  271	  0.0304	  2.2750	   2.275	  13.595
  272	  0.0304	  2.2838	   2.284	  13.645
  273	  0.0312	  2.2925	   2.293	  13.695
  274	  0.0308	  2.3000	   2.300	  13.745
  275	  0.0312	  2.3087	   2.309	  13.795
  276	  0.0312	  2.3175	   2.317	  13.845
  277	  0.0312	  2.3250	   2.325	  13.895
  278	  0.0316	  2.3338	   2.334	  13.945
  279	  0.0320	  2.3425	   2.342	  13.995
  280	  0.0320	  2.3500	   2.350	  14.045
  281	  0.0320	  2.3587	   2.359	  14.095
  282	  0.0320	  2.3675	   2.367	  14.145
  283	  0.0324	  2.3750	   2.375	  14.195
  284	  0.0320	  2.3837	   2.384	  14.245
  285	  0.0324	  2.3925	   2.392	  14.295
  286	  0.0328	  2.4000	   2.400	  14.345
  287	  0.0328	  2.4088	   2.409	  14.395
  288	  0.0324	  2.4175	   2.418	  14.445
  289	  0.0324	  2.4250	   2.425	  14.495
  290	  0.0324	  2.4337	   2.434	  14.545
  291	  0.0336	  2.4425	   2.442	  14.595
  292	  0.0336	  2.4500	   2.450	  14.645
  293	  0.0332	  2.4588	   2.459	  14.695
  294	  0.0328	  2.4675	   2.467	  14.745
  295	  0.0340	  2.4762	   2.476	  14.795
  296	  0.0340	  2.4837	   2.484	  14.845
  297	  0.0336	  2.4925	   2.492	  14.895
  298	  0.0336	  2.5013	   2.501	  14.945
  299	  0.0344	  2.5087	   2.509	  14.995
  300	  0.0340	  2.5175	   2.517	  15.045
  301	  0.0344	  2.5250	   2.525	  15.095
  302	  0.0344	  2.5338	   2.534	  15.145
  303	  0.0340	  2.5425	   2.543	  15.195
  304	  0.0344	  2.5500	   2.550	  15.245
  305	  0.0340	  2.5587	   2.559	  15.295
  306	  0.0352	  2.5675	   2.567	  15.345
  307	  0.0348	  2.5750	   2.575	  15.395
  308	  0.0352	  2.5838	   2.584	  15.445
  309	  0.0348	  2.5925	   2.592	  15.495
  310	  0.0352	  2.6000	   2.600	  15.545
  311	  0.0352	  2.6087	   2.609	  15.595
  312	  0.0352	  2.6175	   2.617	  15.645
  313	  0.0348	  2.6250	   2.625	  15.695
  314	  0.0352	  2.6337	   2.634	  15.745
  315	  0.0356	  2.6425	   2.642	  15.795
  316	  0.0356	  2.6500	   2.650	  15.845
  317	  0.0356	  2.6588	   2.659	  15.895
  318	  0.0352	  2.6675	   2.668	  15.945
  319	  0.0356	  2.6750	   2.675	  15.995
  320	  0.0364	  2.6837	   2.684	  16.045
  321	  0.0368	  2.6925	   2.692	  16.095
  322	  0.0372	  2.7000	   2.700	  16.145
  323	  0.0372	  2.7088	   2.709	  16.195
  324	  0.0376	  2.7175	   2.717	  16.245
  325	  0.0380	  2.7250	   2.725	  16.295
  326	  0.0376	  2.7337	   2.734	  16.345
  327	  0.0372	  2.7425	   2.742	  16.395
  328	  0.0372	  2.7513	   2.751	  16.445
  329	  0.0376	  2.7587	   2.759	  16.495
  330	  0.0384	  2.7675	   2.767	  16.545
  331	  0.0388	  2.7762	   2.776	  16.595
  332	  0.0388	  2.7837	   2.784	  16.645
  333	  0.0384	  2.7925	   2.793	  16.695
  334	  0.0384	  2.8012	   2.801	  16.745
  335	  0.0388	  2.8087	   2.809	  16.795
  336	  0.0388	  2.8175	   2.817	  16.845
  337	  0.0392	  2.8250	   2.825	  16.895
  338	  0.0400	  2.8338	   2.834	  16.945
  339	  0.0396	  2.8425	   2.842	  16.995
  340	  0.0400	  2.8500	   2.850	  17.045
  341	  0.0404	  2.8587	   2.859	  17.095
  342	  0.0404	  2.8675	   2.867	  17.145
  343	  0.0408	  2.8750	   2.875	  17.195
  344	  0.0404	  2.8837	   2.884	  17.245
  345	  0.0412	  2.8925	   2.892	  17.295
  346	  0.0412	  2.9012	   2.901	  17.345
  347	  0.0404	  2.9087	   2.909	  17.395
  348	  0.0408	  2.9175	   2.918	  17.445
  349	  0.0408	  2.9262	   2.926	  17.495
  350	  0.0412	  2.9337	   2.934	  17.545
  351	  0.0408	  2.9425	   2.942	  17.595
  352	  0.0412	  2.9512	   2.951	  17.645
  353	  0.0416	  2.9588	   2.959	  17.695
  354	  0.0412	  2.9675	   2.967	  17.745
  355	  0.0412	  2.9750	   2.975	  17.795
  356	  0.0420	  2.9837	   2.984	  17.845
  357	  0.0416	  2.9925	   2.992	  17.895
  358	  0.0420	  3.0013	   3.001	  17.945
  359	  0.0428	  3.0087	   3.009	  17.995
  360	  0.0420	  3.0175	   3.017	  18.045
  361	  0.0424	  3.0250	   3.025	  18.095
  362	  0.0428	  3.0337	   3.034	  18.145
  363	  0.0432	  3.0425	   3.043	  18.195
  364	  0.0436	  3.0512	   3.051	  18.245
  365	  0.0432	  3.0587	   3.059	  18.295
  366	  0.0432	  3.0675	   3.067	  18.345
  367	  0.0436	  3.0750	   3.075	  18.395
  368	  0.0444	  3.0838	   3.084	  18.445
  369	  0.0440	  3.0925	   3.092	  18.495
  370	  0.0444	  3.1012	   3.101	  18.545
  371	  0.0444	  3.1087	   3.109	  18.595
  372	  0.0448	  3.1175	   3.117	  18.645
  373	  0.0444	  3.1250	   3.125	  18.695
  374	  0.0456	  3.1337	   3.134	  18.745
  375	  0.0456	  3.1425	   3.142	  18.795
  376	  0.0456	  3.1512	   3.151	  18.845
  377	  0.0456	  3.1587	   3.159	  18.895
  378	  0.0452	  3.1675	   3.168	  18.945
  379	  0.0456	  3.1762	   3.176	  18.995
  380	  0.0464	  3.1837	   3.184	  19.045
  381	  0.0464	  3.1925	   3.192	  19.095
  382	  0.0468	  3.2012	   3.201	  19.145
  383	  0.0468	  3.2088	   3.209	  19.195
  384	  0.0472	  3.2175	   3.217	  19.245
  385	  0.0468	  3.2262	   3.226	  19.295
  386	  0.0468	  3.2337	   3.234	  19.345
  387	  0.0468	  3.2425	   3.242	  19.395
  388	  0.0472	  3.2513	   3.251	  19.445
  389	  0.0476	  3.2587	   3.259	  19.495
  390	  0.0476	  3.2675	   3.267	  19.545
  391	  0.0476	  3.2762	   3.276	  19.595
  392	  0.0480	  3.2837	   3.284	  19.645
  393	  0.0480	  3.2925	   3.293	  19.695
  394	  0.0480	  3.3012	   3.301	  19.745
  395	  0.0488	  3.3087	   3.309	  19.795
  396	  0.0492	  3.3175	   3.317	  19.845
  397	  0.0488	  3.3262	   3.326	  19.895
  398	  0.0484	  3.3338	   3.334	  19.945
  399	  0.0484	  3.3425	   3.342	  19.995
  400	  0.0488	  3.3512	   3.351	  20.045
  401	  0.0492	  3.3587	   3.359	  20.095
  402	  0.0492	  3.3675	   3.367	  20.145
  403	  0.0496	  3.3750	   3.375	  20.195
  404	  0.0500	  3.3837	   3.384	  20.245
  405	  0.0500	  3.3925	   3.392	  20.295
  406	  0.0504	  3.4000	   3.400	  20.345
  407	  0.0512	  3.4087	   3.409	  20.395
  408	  0.0508	  3.4175	   3.418	  20.445
  409	  0.0504	  3.4262	   3.426	  20.495
  410	  0.0508	  3.4337	   3.434	  20.545
  411	  0.0512	  3.4425	   3.442	  20.595
  412	  0.0516	  3.4512	   3.451	  20.645
  413	  0.0512	  3.4600	   3.460	  20.695
  414	  0.0516	  3.4675	   3.467	  20.745
  415	  0.0524	  3.4762	   3.476	  20.795
  416	  0.0524	  3.4837	   3.484	  20.845
  417	  0.0528	  3.4925	   3.492	  20.895
  418	  0.0524	  3.5013	   3.501	  20.945
  419	  0.0524	  3.5100	   3.510	  20.995
  420	  0.0520	  3.5175	   3.517	  21.045
  421	  0.0524	  3.5262	   3.526	  21.095
  422	  0.0532	  3.5337	   3.534	  21.145
  423	  0.0532	  3.5425	   3.543	  21.195
  424	  0.0536	  3.5512	   3.551	  21.245
  425	  0.0536	  3.5587	   3.559	  21.295
  426	  0.0532	  3.5675	   3.567	  21.345
  427	  0.0536	  3.5762	   3.576	  21.395
  428	  0.0540	  3.5850	   3.585	  21.445
  429	  0.0528	  3.5925	   3.592	  21.495
  430	  0.0536	  3.6012	   3.601	  21.545
  431	  0.0536	  3.6100	   3.610	  21.595
  432	  0.0548	  3.6175	   3.617	  21.645
  433	  0.0548	  3.6263	   3.626	  21.695
  434	  0.0548	  3.6337	   3.634	  21.745
  435	  0.0552	  3.6425	   3.642	  21.795
  436	  0.0552	  3.6512	   3.651	  21.845
  437	  0.0556	  3.6587	   3.659	  21.895
  438	  0.0544	  3.6675	   3.668	  21.945
  439	  0.0552	  3.6762	   3.676	  21.995
  440	  0.0552	  3.6837	   3.684	  22.045
  441	  0.0556	  3.6925	   3.692	  22.095
  442	  0.0556	  3.7012	   3.701	  22.145
  443	  0.0564	  3.7100	   3.710	  22.195
  444	  0.0560	  3.7175	   3.717	  22.245
  445	  0.0564	  3.7262	   3.726	  22.295
  446	  0.0564	  3.7350	   3.735	  22.345
  447	  0.0564	  3.7425	   3.742	  22.395
  448	  0.0564	  3.7513	   3.751	  22.445
  449	  0.0564	  3.7600	   3.760	  22.495
  450	  0.0564	  3.7675	   3.767	  22.545
  451	  0.0568	  3.7762	   3.776	  22.595
  452	  0.0576	  3.7850	   3.785	  22.645
  453	  0.0576	  3.7925	   3.793	  22.695
  454	  0.0580	  3.8012	   3.801	  22.745
  455	  0.0584	  3.8100	   3.810	  22.795
  456	  0.0584	  3.8175	   3.817	  22.845
  457	  0.0584	  3.8262	   3.826	  22.895
  458	  0.0588	  3.8350	   3.835	  22.945
  459	  0.0600	  3.8425	   3.842	  22.995
  460	  0.0596	  3.8512	   3.851	  23.045
  461	  0.0592	  3.8600	   3.860	  23.095
  462	  0.0592	  3.8675	   3.867	  23.145
  463	  0.0596	  3.8763	   3.876	  23.195
  464	  0.0596	  3.8850	   3.885	  23.245
  465	  0.0604	  3.8937	   3.894	  23.295
  466	  0.0604	  3.9012	   3.901	  23.345
  467	  0.0600	  3.9100	   3.910	  23.395
  468	  0.0604	  3.9187	   3.919	  23.445
  469	  0.0604	  3.9262	   3.926	  23.495
  470	  0.0604	  3.9350	   3.935	  23.545
  471	  0.0600	  3.9425	   3.942	  23.595
