0
Diameter:	   5.00
   1.00
Area:	  19.6350
GaugeLength:	  50.00
2009-1-1
A3
001
DataNumber:	3009
index	Load(kN)	Defor(mm)	Stroke(mm)	Time(s)
    0	  0.0100	  0.0088	   0.009	   0.045
    1	  0.0092	  0.0162	   0.016	   0.095
    2	  0.0088	  0.0250	   0.025	   0.145
    3	  0.0088	  0.0337	   0.034	   0.195
    4	  0.0088	  0.0425	   0.043	   0.245
    5	  0.0088	  0.0500	   0.050	   0.295
    6	  0.0088	  0.0587	   0.059	   0.345
    7	  0.0096	  0.0675	   0.067	   0.395
    8	  0.0092	  0.0750	   0.075	   0.445
    9	  0.0092	  0.0837	   0.084	   0.495
   10	  0.0100	  0.0925	   0.093	   0.545
   11	  0.0100	  0.1013	   0.101	   0.595
   12	  0.0096	  0.1088	   0.109	   0.645
   13	  0.0096	  0.1175	   0.117	   0.695
   14	  0.0104	  0.1262	   0.126	   0.745
   15	  0.0100	  0.1337	   0.134	   0.795
   16	  0.0100	  0.1425	   0.142	   0.845
   17	  0.0096	  0.1512	   0.151	   0.895
   18	  0.0104	  0.1587	   0.159	   0.945
   19	  0.0104	  0.1675	   0.167	   0.995
   20	  0.0104	  0.1762	   0.176	   1.045
   21	  0.0100	  0.1850	   0.185	   1.095
   22	  0.0104	  0.1925	   0.192	   1.145
   23	  0.0100	  0.2013	   0.201	   1.195
   24	  0.0100	  0.2100	   0.210	   1.245
   25	  0.0100	  0.2175	   0.218	   1.295
   26	  0.0100	  0.2262	   0.226	   1.345
   27	  0.0104	  0.2350	   0.235	   1.395
   28	  0.0104	  0.2425	   0.242	   1.445
   29	  0.0104	  0.2512	   0.251	   1.495
   30	  0.0100	  0.2600	   0.260	   1.545
   31	  0.0104	  0.2675	   0.267	   1.595
   32	  0.0108	  0.2763	   0.276	   1.645
   33	  0.0108	  0.2850	   0.285	   1.695
   34	  0.0112	  0.2937	   0.294	   1.745
   35	  0.0108	  0.3012	   0.301	   1.795
   36	  0.0104	  0.3100	   0.310	   1.845
   37	  0.0108	  0.3187	   0.319	   1.895
   38	  0.0108	  0.3262	   0.326	   1.945
   39	  0.0108	  0.3350	   0.335	   1.995
   40	  0.0104	  0.3438	   0.344	   2.045
   41	  0.0112	  0.3512	   0.351	   2.095
   42	  0.0112	  0.3600	   0.360	   2.145
   43	  0.0108	  0.3688	   0.369	   2.195
   44	  0.0108	  0.3762	   0.376	   2.245
   45	  0.0112	  0.3850	   0.385	   2.295
   46	  0.0112	  0.3937	   0.394	   2.345
   47	  0.0120	  0.4013	   0.401	   2.395
   48	  0.0120	  0.4100	   0.410	   2.445
   49	  0.0120	  0.4187	   0.419	   2.495
   50	  0.0120	  0.4262	   0.426	   2.545
   51	  0.0112	  0.4350	   0.435	   2.595
   52	  0.0116	  0.4437	   0.444	   2.645
   53	  0.0116	  0.4512	   0.451	   2.695
   54	  0.0120	  0.4600	   0.460	   2.745
   55	  0.0120	  0.4688	   0.469	   2.795
   56	  0.0120	  0.4775	   0.477	   2.845
   57	  0.0116	  0.4850	   0.485	   2.895
   58	  0.0116	  0.4937	   0.494	   2.945
   59	  0.0116	  0.5025	   0.502	   2.995
   60	  0.0120	  0.5100	   0.510	   3.045
   61	  0.0120	  0.5188	   0.519	   3.095
   62	  0.0124	  0.5263	   0.526	   3.145
   63	  0.0124	  0.5350	   0.535	   3.195
   64	  0.0120	  0.5437	   0.544	   3.245
   65	  0.0116	  0.5525	   0.553	   3.295
   66	  0.0124	  0.5600	   0.560	   3.345
   67	  0.0120	  0.5687	   0.569	   3.395
   68	  0.0124	  0.5775	   0.577	   3.445
   69	  0.0120	  0.5850	   0.585	   3.495
   70	  0.0124	  0.5938	   0.594	   3.545
   71	  0.0120	  0.6025	   0.602	   3.595
   72	  0.0128	  0.6100	   0.610	   3.645
   73	  0.0128	  0.6187	   0.619	   3.695
   74	  0.0128	  0.6275	   0.627	   3.745
   75	  0.0120	  0.6350	   0.635	   3.795
   76	  0.0128	  0.6438	   0.644	   3.845
   77	  0.0132	  0.6525	   0.652	   3.895
   78	  0.0132	  0.6600	   0.660	   3.945
   79	  0.0132	  0.6687	   0.669	   3.995
   80	  0.0128	  0.6775	   0.678	   4.045
   81	  0.0132	  0.6850	   0.685	   4.095
   82	  0.0136	  0.6937	   0.694	   4.145
   83	  0.0132	  0.7012	   0.701	   4.195
   84	  0.0124	  0.7100	   0.710	   4.245
   85	  0.0140	  0.7188	   0.719	   4.295
   86	  0.0136	  0.7275	   0.727	   4.345
   87	  0.0136	  0.7350	   0.735	   4.395
   88	  0.0136	  0.7437	   0.744	   4.445
   89	  0.0140	  0.7525	   0.752	   4.495
   90	  0.0140	  0.7600	   0.760	   4.545
   91	  0.0140	  0.7688	   0.769	   4.595
   92	  0.0136	  0.7763	   0.776	   4.645
   93	  0.0132	  0.7850	   0.785	   4.695
   94	  0.0132	  0.7937	   0.794	   4.745
   95	  0.0136	  0.8012	   0.801	   4.795
   96	  0.0140	  0.8100	   0.810	   4.845
   97	  0.0140	  0.8187	   0.819	   4.895
   98	  0.0140	  0.8262	   0.826	   4.945
   99	  0.0140	  0.8350	   0.835	   4.995
  100	  0.0144	  0.8438	   0.844	   5.045
  101	  0.0144	  0.8525	   0.852	   5.095
  102	  0.0144	  0.8600	   0.860	   5.145
  103	  0.0144	  0.8687	   0.869	   5.195
  104	  0.0140	  0.8775	   0.877	   5.245
  105	  0.0152	  0.8850	   0.885	   5.295
  106	  0.0152	  0.8937	   0.894	   5.345
  107	  0.0156	  0.9025	   0.902	   5.395
  108	  0.0156	  0.9100	   0.910	   5.445
  109	  0.0152	  0.9187	   0.919	   5.495
  110	  0.0152	  0.9275	   0.927	   5.545
  111	  0.0152	  0.9350	   0.935	   5.595
  112	  0.0152	  0.9437	   0.944	   5.645
  113	  0.0144	  0.9512	   0.951	   5.695
  114	  0.0148	  0.9600	   0.960	   5.745
  115	  0.0156	  0.9688	   0.969	   5.795
  116	  0.0156	  0.9775	   0.977	   5.845
  117	  0.0160	  0.9850	   0.985	   5.895
  118	  0.0156	  0.9937	   0.994	   5.945
  119	  0.0152	  1.0025	   1.002	   5.995
  120	  0.0148	  1.0100	   1.010	   6.045
  121	  0.0152	  1.0187	   1.019	   6.095
  122	  0.0152	  1.0263	   1.026	   6.145
  123	  0.0152	  1.0350	   1.035	   6.195
  124	  0.0152	  1.0437	   1.044	   6.245
  125	  0.0156	  1.0512	   1.051	   6.295
  126	  0.0156	  1.0600	   1.060	   6.345
  127	  0.0156	  1.0688	   1.069	   6.395
  128	  0.0160	  1.0762	   1.076	   6.445
  129	  0.0156	  1.0850	   1.085	   6.495
  130	  0.0160	  1.0938	   1.094	   6.545
  131	  0.0160	  1.1025	   1.102	   6.595
  132	  0.0156	  1.1100	   1.110	   6.645
  133	  0.0160	  1.1187	   1.119	   6.695
  134	  0.0164	  1.1275	   1.127	   6.745
  135	  0.0168	  1.1363	   1.136	   6.795
  136	  0.0164	  1.1437	   1.144	   6.845
  137	  0.0164	  1.1525	   1.153	   6.895
  138	  0.0172	  1.1612	   1.161	   6.945
  139	  0.0168	  1.1687	   1.169	   6.995
  140	  0.0168	  1.1775	   1.178	   7.045
  141	  0.0164	  1.1850	   1.185	   7.095
  142	  0.0164	  1.1938	   1.194	   7.145
  143	  0.0168	  1.2025	   1.202	   7.195
  144	  0.0168	  1.2100	   1.210	   7.245
  145	  0.0172	  1.2188	   1.219	   7.295
  146	  0.0172	  1.2275	   1.227	   7.345
  147	  0.0180	  1.2350	   1.235	   7.395
  148	  0.0172	  1.2437	   1.244	   7.445
  149	  0.0180	  1.2525	   1.252	   7.495
  150	  0.0176	  1.2613	   1.261	   7.545
  151	  0.0180	  1.2687	   1.269	   7.595
  152	  0.0180	  1.2775	   1.277	   7.645
  153	  0.0176	  1.2862	   1.286	   7.695
  154	  0.0176	  1.2937	   1.294	   7.745
  155	  0.0176	  1.3025	   1.303	   7.795
  156	  0.0184	  1.3112	   1.311	   7.845
  157	  0.0180	  1.3188	   1.319	   7.895
  158	  0.0188	  1.3275	   1.327	   7.945
  159	  0.0184	  1.3362	   1.336	   7.995
  160	  0.0184	  1.3438	   1.344	   8.045
  161	  0.0184	  1.3525	   1.352	   8.095
  162	  0.0184	  1.3612	   1.361	   8.145
  163	  0.0188	  1.3687	   1.369	   8.195
  164	  0.0188	  1.3775	   1.377	   8.245
  165	  0.0188	  1.3863	   1.386	   8.295
  166	  0.0188	  1.3937	   1.394	   8.345
  167	  0.0188	  1.4025	   1.402	   8.395
  168	  0.0192	  1.4112	   1.411	   8.445
  169	  0.0188	  1.4187	   1.419	   8.495
  170	  0.0192	  1.4275	   1.428	   8.545
  171	  0.0196	  1.4362	   1.436	   8.595
  172	  0.0196	  1.4438	   1.444	   8.645
  173	  0.0188	  1.4525	   1.452	   8.695
  174	  0.0188	  1.4612	   1.461	   8.745
  175	  0.0188	  1.4688	   1.469	   8.795
  176	  0.0192	  1.4775	   1.477	   8.845
  177	  0.0192	  1.4862	   1.486	   8.895
  178	  0.0196	  1.4937	   1.494	   8.945
  179	  0.0196	  1.5025	   1.502	   8.995
  180	  0.0196	  1.5113	   1.511	   9.045
  181	  0.0196	  1.5187	   1.519	   9.095
  182	  0.0196	  1.5275	   1.527	   9.145
  183	  0.0196	  1.5362	   1.536	   9.195
  184	  0.0200	  1.5437	   1.544	   9.245
  185	  0.0204	  1.5525	   1.553	   9.295
  186	  0.0208	  1.5612	   1.561	   9.345
  187	  0.0204	  1.5688	   1.569	   9.395
  188	  0.0208	  1.5775	   1.577	   9.445
  189	  0.0204	  1.5862	   1.586	   9.495
  190	  0.0204	  1.5938	   1.594	   9.545
  191	  0.0200	  1.6025	   1.602	   9.595
  192	  0.0200	  1.6112	   1.611	   9.645
  193	  0.0204	  1.6187	   1.619	   9.695
  194	  0.0208	  1.6275	   1.627	   9.745
  195	  0.0208	  1.6363	   1.636	   9.795
  196	  0.0208	  1.6450	   1.645	   9.845
  197	  0.0204	  1.6525	   1.652	   9.895
  198	  0.0204	  1.6612	   1.661	   9.945
  199	  0.0200	  1.6700	   1.670	   9.995
  200	  0.0204	  1.6775	   1.678	  10.045
  201	  0.0216	  1.6862	   1.686	  10.095
  202	  0.0216	  1.6937	   1.694	  10.145
  203	  0.0216	  1.7025	   1.702	  10.195
  204	  0.0212	  1.7112	   1.711	  10.245
  205	  0.0216	  1.7188	   1.719	  10.295
  206	  0.0216	  1.7275	   1.727	  10.345
  207	  0.0216	  1.7350	   1.735	  10.395
  208	  0.0212	  1.7437	   1.744	  10.445
  209	  0.0212	  1.7525	   1.752	  10.495
  210	  0.0224	  1.7600	   1.760	  10.545
  211	  0.0224	  1.7687	   1.769	  10.595
  212	  0.0224	  1.7775	   1.777	  10.645
  213	  0.0220	  1.7850	   1.785	  10.695
  214	  0.0224	  1.7937	   1.794	  10.745
  215	  0.0224	  1.8025	   1.803	  10.795
  216	  0.0224	  1.8100	   1.810	  10.845
  217	  0.0228	  1.8187	   1.819	  10.895
  218	  0.0232	  1.8275	   1.827	  10.945
  219	  0.0228	  1.8362	   1.836	  10.995
  220	  0.0224	  1.8438	   1.844	  11.045
  221	  0.0232	  1.8525	   1.852	  11.095
  222	  0.0228	  1.8612	   1.861	  11.145
  223	  0.0236	  1.8687	   1.869	  11.195
  224	  0.0240	  1.8775	   1.877	  11.245
  225	  0.0236	  1.8862	   1.886	  11.295
  226	  0.0228	  1.8937	   1.894	  11.345
  227	  0.0232	  1.9025	   1.902	  11.395
  228	  0.0236	  1.9100	   1.910	  11.445
  229	  0.0236	  1.9187	   1.919	  11.495
  230	  0.0240	  1.9275	   1.928	  11.545
  231	  0.0248	  1.9362	   1.936	  11.595
  232	  0.0244	  1.9437	   1.944	  11.645
  233	  0.0248	  1.9525	   1.952	  11.695
  234	  0.0248	  1.9612	   1.961	  11.745
  235	  0.0248	  1.9688	   1.969	  11.795
  236	  0.0248	  1.9775	   1.977	  11.845
  237	  0.0248	  1.9862	   1.986	  11.895
  238	  0.0252	  1.9950	   1.995	  11.945
  239	  0.0252	  2.0025	   2.003	  11.995
  240	  0.0256	  2.0113	   2.011	  12.045
  241	  0.0256	  2.0187	   2.019	  12.095
  242	  0.0264	  2.0275	   2.027	  12.145
  243	  0.0264	  2.0362	   2.036	  12.195
  244	  0.0264	  2.0450	   2.045	  12.245
  245	  0.0268	  2.0525	   2.053	  12.295
  246	  0.0268	  2.0612	   2.061	  12.345
  247	  0.0264	  2.0700	   2.070	  12.395
  248	  0.0264	  2.0775	   2.077	  12.445
  249	  0.0264	  2.0863	   2.086	  12.495
  250	  0.0260	  2.0950	   2.095	  12.545
  251	  0.0268	  2.1037	   2.104	  12.595
  252	  0.0272	  2.1112	   2.111	  12.645
  253	  0.0272	  2.1200	   2.120	  12.695
  254	  0.0268	  2.1287	   2.129	  12.745
  255	  0.0272	  2.1363	   2.136	  12.795
  256	  0.0268	  2.1450	   2.145	  12.845
  257	  0.0268	  2.1537	   2.154	  12.895
  258	  0.0272	  2.1612	   2.161	  12.945
  259	  0.0268	  2.1700	   2.170	  12.995
  260	  0.0268	  2.1788	   2.179	  13.045
  261	  0.0272	  2.1862	   2.186	  13.095
  262	  0.0268	  2.1950	   2.195	  13.145
  263	  0.0268	  2.2037	   2.204	  13.195
  264	  0.0276	  2.2113	   2.211	  13.245
  265	  0.0280	  2.2200	   2.220	  13.295
  266	  0.0280	  2.2287	   2.229	  13.345
  267	  0.0284	  2.2362	   2.236	  13.395
  268	  0.0280	  2.2450	   2.245	  13.445
  269	  0.0284	  2.2537	   2.254	  13.495
  270	  0.0288	  2.2613	   2.261	  13.545
  271	  0.0288	  2.2700	   2.270	  13.595
  272	  0.0292	  2.2787	   2.279	  13.645
  273	  0.0292	  2.2862	   2.286	  13.695
  274	  0.0292	  2.2950	   2.295	  13.745
  275	  0.0296	  2.3038	   2.304	  13.795
  276	  0.0292	  2.3112	   2.311	  13.845
  277	  0.0296	  2.3200	   2.320	  13.895
  278	  0.0296	  2.3287	   2.329	  13.945
  279	  0.0300	  2.3363	   2.336	  13.995
  280	  0.0300	  2.3450	   2.345	  14.045
  281	  0.0300	  2.3537	   2.354	  14.095
  282	  0.0296	  2.3612	   2.361	  14.145
  283	  0.0296	  2.3700	   2.370	  14.195
  284	  0.0300	  2.3787	   2.379	  14.245
  285	  0.0304	  2.3875	   2.388	  14.295
  286	  0.0304	  2.3950	   2.395	  14.345
  287	  0.0308	  2.4037	   2.404	  14.395
  288	  0.0312	  2.4125	   2.412	  14.445
  289	  0.0316	  2.4200	   2.420	  14.495
  290	  0.0320	  2.4288	   2.429	  14.545
  291	  0.0320	  2.4375	   2.438	  14.595
  292	  0.0316	  2.4450	   2.445	  14.645
  293	  0.0316	  2.4537	   2.454	  14.695
  294	  0.0320	  2.4625	   2.462	  14.745
  295	  0.0316	  2.4713	   2.471	  14.795
  296	  0.0320	  2.4787	   2.479	  14.845
  297	  0.0316	  2.4875	   2.487	  14.895
  298	  0.0312	  2.4962	   2.496	  14.945
  299	  0.0324	  2.5037	   2.504	  14.995
  300	  0.0328	  2.5125	   2.513	  15.045
  301	  0.0324	  2.5213	   2.521	  15.095
  302	  0.0328	  2.5287	   2.529	  15.145
  303	  0.0328	  2.5375	   2.537	  15.195
  304	  0.0332	  2.5462	   2.546	  15.245
  305	  0.0332	  2.5538	   2.554	  15.295
  306	  0.0332	  2.5625	   2.562	  15.345
  307	  0.0332	  2.5700	   2.570	  15.395
  308	  0.0332	  2.5787	   2.579	  15.445
  309	  0.0340	  2.5875	   2.587	  15.495
  310	  0.0340	  2.5950	   2.595	  15.545
  311	  0.0340	  2.6037	   2.604	  15.595
  312	  0.0344	  2.6125	   2.612	  15.645
  313	  0.0344	  2.6212	   2.621	  15.695
  314	  0.0348	  2.6287	   2.629	  15.745
  315	  0.0348	  2.6375	   2.638	  15.795
  316	  0.0352	  2.6463	   2.646	  15.845
  317	  0.0356	  2.6537	   2.654	  15.895
  318	  0.0360	  2.6625	   2.662	  15.945
  319	  0.0360	  2.6712	   2.671	  15.995
  320	  0.0360	  2.6788	   2.679	  16.045
  321	  0.0364	  2.6875	   2.688	  16.095
  322	  0.0360	  2.6962	   2.696	  16.145
  323	  0.0356	  2.7037	   2.704	  16.195
  324	  0.0364	  2.7125	   2.712	  16.245
  325	  0.0368	  2.7213	   2.721	  16.295
  326	  0.0368	  2.7287	   2.729	  16.345
  327	  0.0364	  2.7375	   2.737	  16.395
  328	  0.0364	  2.7462	   2.746	  16.445
  329	  0.0372	  2.7550	   2.755	  16.495
  330	  0.0372	  2.7625	   2.763	  16.545
  331	  0.0368	  2.7713	   2.771	  16.595
  332	  0.0376	  2.7787	   2.779	  16.645
  333	  0.0376	  2.7875	   2.787	  16.695
  334	  0.0376	  2.7962	   2.796	  16.745
  335	  0.0384	  2.8050	   2.805	  16.795
  336	  0.0376	  2.8125	   2.812	  16.845
  337	  0.0380	  2.8212	   2.821	  16.895
  338	  0.0388	  2.8287	   2.829	  16.945
  339	  0.0388	  2.8375	   2.837	  16.995
  340	  0.0388	  2.8462	   2.846	  17.045
  341	  0.0380	  2.8550	   2.855	  17.095
  342	  0.0384	  2.8625	   2.862	  17.145
  343	  0.0384	  2.8712	   2.871	  17.195
  344	  0.0388	  2.8800	   2.880	  17.245
  345	  0.0388	  2.8875	   2.888	  17.295
  346	  0.0384	  2.8963	   2.896	  17.345
  347	  0.0380	  2.9050	   2.905	  17.395
  348	  0.0384	  2.9125	   2.912	  17.445
  349	  0.0388	  2.9212	   2.921	  17.495
  350	  0.0392	  2.9300	   2.930	  17.545
  351	  0.0388	  2.9388	   2.939	  17.595
  352	  0.0392	  2.9462	   2.946	  17.645
  353	  0.0388	  2.9550	   2.955	  17.695
  354	  0.0392	  2.9637	   2.964	  17.745
  355	  0.0400	  2.9712	   2.971	  17.795
  356	  0.0400	  2.9800	   2.980	  17.845
  357	  0.0408	  2.9887	   2.989	  17.895
  358	  0.0408	  2.9962	   2.996	  17.945
  359	  0.0408	  3.0050	   3.005	  17.995
  360	  0.0412	  3.0137	   3.014	  18.045
  361	  0.0416	  3.0213	   3.021	  18.095
  362	  0.0420	  3.0287	   3.029	  18.145
  363	  0.0416	  3.0375	   3.037	  18.195
  364	  0.0416	  3.0450	   3.045	  18.245
  365	  0.0420	  3.0538	   3.054	  18.295
  366	  0.0420	  3.0625	   3.062	  18.345
  367	  0.0424	  3.0700	   3.070	  18.395
  368	  0.0424	  3.0787	   3.079	  18.445
  369	  0.0424	  3.0875	   3.087	  18.495
  370	  0.0424	  3.0962	   3.096	  18.545
  371	  0.0428	  3.1037	   3.104	  18.595
  372	  0.0428	  3.1125	   3.112	  18.645
  373	  0.0432	  3.1212	   3.121	  18.695
  374	  0.0432	  3.1300	   3.130	  18.745
  375	  0.0428	  3.1375	   3.138	  18.795
  376	  0.0428	  3.1463	   3.146	  18.845
  377	  0.0436	  3.1550	   3.155	  18.895
  378	  0.0436	  3.1625	   3.162	  18.945
  379	  0.0440	  3.1712	   3.171	  18.995
  380	  0.0444	  3.1800	   3.180	  19.045
  381	  0.0436	  3.1875	   3.188	  19.095
  382	  0.0440	  3.1962	   3.196	  19.145
  383	  0.0440	  3.2050	   3.205	  19.195
  384	  0.0440	  3.2137	   3.214	  19.245
  385	  0.0440	  3.2225	   3.222	  19.295
  386	  0.0444	  3.2300	   3.230	  19.345
  387	  0.0444	  3.2387	   3.239	  19.395
  388	  0.0452	  3.2475	   3.247	  19.445
  389	  0.0452	  3.2550	   3.255	  19.495
  390	  0.0452	  3.2637	   3.264	  19.545
  391	  0.0448	  3.2725	   3.273	  19.595
  392	  0.0460	  3.2800	   3.280	  19.645
  393	  0.0460	  3.2887	   3.289	  19.695
  394	  0.0460	  3.2975	   3.297	  19.745
  395	  0.0460	  3.3062	   3.306	  19.795
  396	  0.0464	  3.3138	   3.314	  19.845
  397	  0.0468	  3.3225	   3.322	  19.895
  398	  0.0472	  3.3312	   3.331	  19.945
  399	  0.0468	  3.3400	   3.340	  19.995
  400	  0.0468	  3.3475	   3.347	  20.045
  401	  0.0468	  3.3562	   3.356	  20.095
  402	  0.0472	  3.3650	   3.365	  20.145
  403	  0.0476	  3.3725	   3.372	  20.195
  404	  0.0480	  3.3812	   3.381	  20.245
  405	  0.0476	  3.3900	   3.390	  20.295
  406	  0.0484	  3.3987	   3.399	  20.345
  407	  0.0488	  3.4062	   3.406	  20.395
  408	  0.0480	  3.4150	   3.415	  20.445
  409	  0.0484	  3.4237	   3.424	  20.495
  410	  0.0484	  3.4325	   3.432	  20.545
  411	  0.0492	  3.4400	   3.440	  20.595
  412	  0.0492	  3.4488	   3.449	  20.645
  413	  0.0492	  3.4575	   3.457	  20.695
  414	  0.0496	  3.4662	   3.466	  20.745
  415	  0.0496	  3.4737	   3.474	  20.795
  416	  0.0500	  3.4825	   3.482	  20.845
  417	  0.0500	  3.4913	   3.491	  20.895
  418	  0.0504	  3.4987	   3.499	  20.945
  419	  0.0508	  3.5075	   3.507	  20.995
  420	  0.0512	  3.5162	   3.516	  21.045
  421	  0.0504	  3.5250	   3.525	  21.095
  422	  0.0508	  3.5325	   3.533	  21.145
  423	  0.0512	  3.5412	   3.541	  21.195
  424	  0.0508	  3.5500	   3.550	  21.245
  425	  0.0516	  3.5575	   3.557	  21.295
  426	  0.0516	  3.5662	   3.566	  21.345
  427	  0.0516	  3.5750	   3.575	  21.395
  428	  0.0516	  3.5838	   3.584	  21.445
  429	  0.0524	  3.5912	   3.591	  21.495
  430	  0.0524	  3.6000	   3.600	  21.545
  431	  0.0524	  3.6087	   3.609	  21.595
  432	  0.0524	  3.6175	   3.617	  21.645
  433	  0.0520	  3.6250	   3.625	  21.695
  434	  0.0524	  3.6337	   3.634	  21.745
  435	  0.0520	  3.6425	   3.642	  21.795
  436	  0.0528	  3.6500	   3.650	  21.845
  437	  0.0524	  3.6587	   3.659	  21.895
  438	  0.0520	  3.6675	   3.668	  21.945
  439	  0.0528	  3.6762	   3.676	  21.995
  440	  0.0536	  3.6837	   3.684	  22.045
  441	  0.0528	  3.6925	   3.692	  22.095
  442	  0.0540	  3.7012	   3.701	  22.145
  443	  0.0540	  3.7088	   3.709	  22.195
  444	  0.0540	  3.7175	   3.717	  22.245
  445	  0.0544	  3.7262	   3.726	  22.295
  446	  0.0540	  3.7350	   3.735	  22.345
  447	  0.0548	  3.7425	   3.742	  22.395
  448	  0.0548	  3.7513	   3.751	  22.445
  449	  0.0544	  3.7600	   3.760	  22.495
  450	  0.0548	  3.7687	   3.769	  22.545
  451	  0.0552	  3.7762	   3.776	  22.595
  452	  0.0552	  3.7850	   3.785	  22.645
  453	  0.0556	  3.7937	   3.794	  22.695
  454	  0.0560	  3.8025	   3.803	  22.745
  455	  0.0560	  3.8100	   3.810	  22.795
  456	  0.0556	  3.8187	   3.819	  22.845
  457	  0.0568	  3.8262	   3.826	  22.895
  458	  0.0568	  3.8350	   3.835	  22.945
  459	  0.0568	  3.8438	   3.844	  22.995
  460	  0.0564	  3.8512	   3.851	  23.045
  461	  0.0564	  3.8600	   3.860	  23.095
  462	  0.0568	  3.8687	   3.869	  23.145
  463	  0.0580	  3.8775	   3.877	  23.195
  464	  0.0572	  3.8850	   3.885	  23.245
  465	  0.0576	  3.8937	   3.894	  23.295
  466	  0.0576	  3.9025	   3.902	  23.345
  467	  0.0584	  3.9112	   3.911	  23.395
  468	  0.0580	  3.9187	   3.919	  23.445
  469	  0.0588	  3.9275	   3.928	  23.495
  470	  0.0584	  3.9362	   3.936	  23.545
  471	  0.0584	  3.9437	   3.944	  23.595
